* Sea-Bird SBE19plus  Data File:
* FileName = C:\seabirdscientific\tests\resources\test-data\SBE19plus_01906398_2019_07_15_0033.hex
* Software version 2.8.0.119
* Temperature SN = 6398
* Conductivity SN = 6398
* System UpLoad Time = Jul 15 2019 10:56:00
* <ApplicationData>
* <Seaterm232>
* <SoftwareVersion>2.8.0.119</SoftwareVersion>
* <BuildDate>07-Nov-2018</BuildDate>
* </Seaterm232>
* </ApplicationData>
* <InstrumentState>
* <HardwareData DeviceType='SBE19plus' SerialNumber='01906398'>
*
*    <Manufacturer>Sea-Bird Electronics, Inc.</Manufacturer>
*
*    <FirmwareVersion>2.5.2</FirmwareVersion>
*
*    <FirmwareDate>12 Mar 2013 11:50</FirmwareDate>
*
*    <CommandSetVersion>1.3</CommandSetVersion>
*
*    <PCBAssembly PCBSerialNum='9270' AssemblyNum='41054G'/>
*
*    <PCBAssembly PCBSerialNum='9117' AssemblyNum='41580B'/>
*
*    <PCBAssembly PCBSerialNum='11030' AssemblyNum='41606'/>
*
*    <PCBAssembly PCBSerialNum='10002' AssemblyNum='41059D'/>
*
*    <MfgDate>07  AUG   2009</MfgDate>
*
*    <InternalSensors>
*
*       <Sensor id='Main Temperature'>
*
*          <type>temperature0</type>
*
*          <SerialNumber>01906398</SerialNumber>
*
*       </Sensor>
*
*       <Sensor id='Main Conductivity'>
*
*          <type>conductivity-0</type>
*
*          <SerialNumber>01906398</SerialNumber>
*
*       </Sensor>
*
*       <Sensor id='Main Pressure'>
*
*          <type>strain-0</type>
*
*          <SerialNumber> 2945715</SerialNumber>
*
*       </Sensor>
*
*    </InternalSensors>
*
*    <ExternalSensors>
*
*       <Sensor id='volt 0'>
*
*          <type>SBE 43 OXY</type>
*
*          <SerialNumber>431686</SerialNumber>
*
*       </Sensor>
*
*       <Sensor id='volt 1'>
*
*          <type>not assigned</type>
*
*          <SerialNumber>not assigned</SerialNumber>
*
*       </Sensor>
*
*       <Sensor id='volt 2'>
*
*          <type>SBE 18 pH</type>
*
*          <SerialNumber>180726</SerialNumber>
*
*       </Sensor>
*
*       <Sensor id='volt 3'>
*
*          <type>not assigned</type>
*
*          <SerialNumber>not assigned</SerialNumber>
*
*       </Sensor>
*
*       <Sensor id='volt 4'>
*
*          <type>not assigned</type>
*
*          <SerialNumber>not assigned</SerialNumber>
*
*       </Sensor>
*
*       <Sensor id='volt 5'>
*
*          <type>not assigned</type>
*
*          <SerialNumber>not assigned</SerialNumber>
*
*       </Sensor>
*
*       <Sensor id='serial'>
*
*          <type>not assigned</type>
*
*          <SerialNumber>not assigned</SerialNumber>
*
*       </Sensor>
*
*    </ExternalSensors>
*
* </HardwareData>
* <StatusData DeviceType='SBE19plus' SerialNumber='01906398'>
*
*    <DateTime>2019-07-15T14:55:31</DateTime>
*
*    <LoggingState>not logging</LoggingState>
*
*    <EventSummary numEvents='0'/>
*
*    <Power>
*
*       <vMain>12.9</vMain>
*
*       <vLith>8.1</vLith>
*
*       <iMain>60.9</iMain>
*
*       <iPump>37.8</iPump>
*
*       <iExt01> 5.2</iExt01>
*
*       <iExt2345> 7.7</iExt2345>
*
*    </Power>
*
*    <MemorySummary>
*
*       <Bytes>800730</Bytes>
*
*       <Samples>53382</Samples>
*
*       <SamplesFree>4333160</SamplesFree>
*
*       <SampleLength>15</SampleLength>
*
*       <Profiles>36</Profiles>
*
*    </MemorySummary>
*
* </StatusData>
* <ConfigurationData DeviceType='SBE19plus' SerialNumber='01906398'>
*
*    <ProfileMode>
*
*       <ScansToAverage>1</ScansToAverage>
*
*       <MinimumCondFreq>3031</MinimumCondFreq>
*
*       <PumpDelay>60</PumpDelay>
*
*       <AutoRun>no</AutoRun>
*
*       <IgnoreSwitch>no</IgnoreSwitch>
*
*    </ProfileMode>
*
*    <Battery>
*
*       <Type>alkaline</Type>
*
*       <CutOff>7.5</CutOff>
*
*    </Battery>
*
*    <DataChannels>
*
*       <ExtVolt0>yes</ExtVolt0>
*
*       <ExtVolt1>no</ExtVolt1>
*
*       <ExtVolt2>yes</ExtVolt2>
*
*       <ExtVolt3>no</ExtVolt3>
*
*       <ExtVolt4>no</ExtVolt4>
*
*       <ExtVolt5>no</ExtVolt5>
*
*       <SBE38>no</SBE38>
*
*       <WETLABS>no</WETLABS>
*
*       <OPTODE>no</OPTODE>
*
*       <SBE63>no</SBE63>
*
*       <GTD>no</GTD>
*
*    </DataChannels>
*
*    <EchoCharacters>yes</EchoCharacters>
*
*    <OutputExecutedTag>yes</OutputExecutedTag>
*
*    <OutputFormat>raw HEX</OutputFormat>
*
* </ConfigurationData>
* <CalibrationCoefficients DeviceType='SBE19plus' SerialNumber='01906398'>
*
*    <Calibration format='TEMP1' id='Main Temperature'>
*
*       <SerialNum>01906398</SerialNum>
*
*       <CalDate>28-Jul-18</CalDate>
*
*       <TA0>1.260959e-03</TA0>
*
*       <TA1>2.591380e-04</TA1>
*
*       <TA2>-1.767619e-07</TA2>
*
*       <TA3>1.436997e-07</TA3>
*
*       <TOFFSET>0.000000e+00</TOFFSET>
*
*    </Calibration>
*
*    <Calibration format='WBCOND0' id='Main Conductivity'>
*
*       <SerialNum>01906398</SerialNum>
*
*       <CalDate>28-Jul-18</CalDate>
*
*       <G>-1.032066e+00</G>
*
*       <H>1.618533e-01</H>
*
*       <I>-6.162699e-04</I>
*
*       <J>6.881150e-05</J>
*
*       <CPCOR>-9.570000e-08</CPCOR>
*
*       <CTCOR>3.250000e-06</CTCOR>
*
*       <CSLOPE>1.000000e+00</CSLOPE>
*
*    </Calibration>
*
*    <Calibration format='STRAIN0' id='Main Pressure'>
*
*       <SerialNum> 2945715</SerialNum>
*
*       <CalDate>26-Jul-18</CalDate>
*
*       <PA0>-2.384401e-01</PA0>
*
*       <PA1>4.878331e-04</PA1>
*
*       <PA2>-5.821914e-12</PA2>
*
*       <PTCA0>5.244422e+05</PTCA0>
*
*       <PTCA1>-2.996721e+01</PTCA1>
*
*       <PTCA2>3.563378e-01</PTCA2>
*
*       <PTCB0>2.500613e+01</PTCB0>
*
*       <PTCB1>-7.750000e-04</PTCB1>
*
*       <PTCB2>0.000000e+00</PTCB2>
*
*       <PTEMPA0>-6.743632e+01</PTEMPA0>
*
*       <PTEMPA1>5.322650e+01</PTEMPA1>
*
*       <PTEMPA2>-5.033771e-01</PTEMPA2>
*
*       <POFFSET>0.000000e+00</POFFSET>
*
*       <PRANGE>1.600000e+02</PRANGE>
*
*    </Calibration>
*
*    <Calibration format='VOLT0' id='Volt 0'>
*
*       <OFFSET>-4.502316e-02</OFFSET>
*
*       <SLOPE>1.250388e+00</SLOPE>
*
*    </Calibration>
*
*    <Calibration format='VOLT0' id='Volt 1'>
*
*       <OFFSET>-4.554316e-02</OFFSET>
*
*       <SLOPE>1.250640e+00</SLOPE>
*
*    </Calibration>
*
*    <Calibration format='VOLT0' id='Volt 2'>
*
*       <OFFSET>-4.476105e-02</OFFSET>
*
*       <SLOPE>1.250449e+00</SLOPE>
*
*    </Calibration>
*
*    <Calibration format='VOLT0' id='Volt 3'>
*
*       <OFFSET>-4.540210e-02</OFFSET>
*
*       <SLOPE>1.250253e+00</SLOPE>
*
*    </Calibration>
*
*    <Calibration format='VOLT0' id='Volt 4'>
*
*       <OFFSET>-4.589369e-02</OFFSET>
*
*       <SLOPE>1.250627e+00</SLOPE>
*
*    </Calibration>
*
*    <Calibration format='VOLT0' id='Volt 5'>
*
*       <OFFSET>-4.496105e-02</OFFSET>
*
*       <SLOPE>1.250115e+00</SLOPE>
*
*    </Calibration>
*
*    <Calibration format='FREQ0' id='external frequency channel'>
*
*       <EXTFREQSF>9.999961e-01</EXTFREQSF>
*
*    </Calibration>
*
* </CalibrationCoefficients>
* <EventCounters DeviceType='SBE19plus' SerialNumber='01906398'>
*
*    <EventSummary numEvents='0'/>
*
* </EventCounters></InstrumentState>
* <Headers>
*
* cast  33 02 Jul 2019 15:46:41 samples 49934 to 50915, avg = 1, stop = mag switch
*
# nquan = 7
# nvalues = 982                                   
# units = specified
# name 0 = prdM: Pressure, Strain Gauge [db]
# name 1 = tv290C: Temperature [ITS-90, deg C]
# name 2 = c0S/m: Conductivity [S/m]
# name 3 = sal00: Salinity, Practical [PSU]
# name 4 = sbeox0V: Oxygen raw, SBE 43 [V]
# name 5 = ph: pH
# name 6 = flag:  0.000e+00
# span 0 =     -0.021,     22.513                 
# span 1 =    22.9080,    26.7968                 
# span 2 =   0.049819,   2.773892                 
# span 3 =     0.2350,    17.7849                 
# span 4 =     0.5645,     3.5873                 
# span 5 =      7.481,      8.629                 
# span 6 = 0.0000e+00, 0.0000e+00                 
# interval = seconds: 0.25
# start_time = Jul 02 2019 15:46:41 [Instrument's time stamp, header]
# bad_flag = -9.990e-29
# <Sensors count="5" >
#   <sensor Channel="1" >
#     <!-- Count, Temperature -->
#     <TemperatureSensor SensorID="58" >
#       <SerialNumber>6398</SerialNumber>
#       <CalibrationDate>28-Jul-18</CalibrationDate>
#       <A0>1.26095907e-003</A0>
#       <A1>2.59137989e-004</A1>
#       <A2>-1.76761879e-007</A2>
#       <A3>1.43699673e-007</A3>
#       <Slope>1.00000000</Slope>
#       <Offset>0.0000</Offset>
#     </TemperatureSensor>
#   </sensor>
#   <sensor Channel="2" >
#     <!-- Frequency 0, Conductivity -->
#     <ConductivitySensor SensorID="3" >
#       <SerialNumber>6398</SerialNumber>
#       <CalibrationDate>28-Jul-18</CalibrationDate>
#       <UseG_J>1</UseG_J>
#       <!-- Cell const and series R are applicable only for wide range sensors. -->
#       <SeriesR>0.0000</SeriesR>
#       <CellConst>2000.0000</CellConst>
#       <ConductivityType>0</ConductivityType>
#       <Coefficients equation="0" >
#         <A>0.00000000e+000</A>
#         <B>0.00000000e+000</B>
#         <C>0.00000000e+000</C>
#         <D>0.00000000e+000</D>
#         <M>0.0</M>
#         <CPcor>-9.57000000e-008</CPcor>
#       </Coefficients>
#       <Coefficients equation="1" >
#         <G>-1.03206551e+000</G>
#         <H>1.61853283e-001</H>
#         <I>-6.16269794e-004</I>
#         <J>6.88114987e-005</J>
#         <CPcor>-9.57000000e-008</CPcor>
#         <CTcor>3.2500e-006</CTcor>
#         <!-- WBOTC not applicable unless ConductivityType = 1. -->
#         <WBOTC>0.00000000e+000</WBOTC>
#       </Coefficients>
#       <Slope>1.00000000</Slope>
#       <Offset>0.00000</Offset>
#     </ConductivitySensor>
#   </sensor>
#   <sensor Channel="3" >
#     <!-- Count, Pressure, Strain Gauge -->
#     <PressureSensor SensorID="46" >
#       <SerialNumber>6398</SerialNumber>
#       <CalibrationDate>26-Jul-18</CalibrationDate>
#       <PA0>-2.38440127e-001</PA0>
#       <PA1>4.87833137e-004</PA1>
#       <PA2>-5.82191388e-012</PA2>
#       <PTEMPA0>-6.74363150e+001</PTEMPA0>
#       <PTEMPA1>5.32265012e+001</PTEMPA1>
#       <PTEMPA2>-5.03377089e-001</PTEMPA2>
#       <PTCA0>5.24442060e+005</PTCA0>
#       <PTCA1>-2.99672123e+001</PTCA1>
#       <PTCA2>3.56337762e-001</PTCA2>
#       <PTCB0>2.50061250e+001</PTCB0>
#       <PTCB1>-7.75000000e-004</PTCB1>
#       <PTCB2>0.00000000e+000</PTCB2>
#       <Offset>0.000000</Offset>
#     </PressureSensor>
#   </sensor>
#   <sensor Channel="4" >
#     <!-- A/D voltage 0, Oxygen, SBE 43 -->
#     <OxygenSensor SensorID="38" >
#       <SerialNumber>431686</SerialNumber>
#       <CalibrationDate></CalibrationDate>
#       <Use2007Equation>1</Use2007Equation>
#       <CalibrationCoefficients equation="0" >
#         <!-- Coefficients for Owens-Millard equation. -->
#         <Boc>0.0000</Boc>
#         <Soc>0.0000e+000</Soc>
#         <offset>0.0000</offset>
#         <Pcor>0.00e+000</Pcor>
#         <Tcor>0.0000</Tcor>
#         <Tau>0.0</Tau>
#       </CalibrationCoefficients>
#       <CalibrationCoefficients equation="1" >
#         <!-- Coefficients for Sea-Bird equation - SBE calibration in 2007 and later. -->
#         <Soc>3.8980e-001</Soc>
#         <offset>-0.4980</offset>
#         <A>-3.3982e-003</A>
#         <B> 1.5817e-004</B>
#         <C>-2.6651e-006</C>
#         <D0> 2.5826e+000</D0>
#         <D1> 1.92634e-004</D1>
#         <D2>-4.64803e-002</D2>
#         <E> 3.6000e-002</E>
#         <Tau20> 1.0800</Tau20>
#         <H1>-3.3000e-002</H1>
#         <H2> 5.0000e+003</H2>
#         <H3> 1.4500e+003</H3>
#       </CalibrationCoefficients>
#     </OxygenSensor>
#   </sensor>
#   <sensor Channel="5" >
#     <!-- A/D voltage 1, pH -->
#     <pH_Sensor SensorID="43" >
#       <SerialNumber>180726</SerialNumber>
#       <CalibrationDate></CalibrationDate>
#       <Slope>4.6067</Slope>
#       <Offset>2.5157</Offset>
#     </pH_Sensor>
#   </sensor>
# </Sensors>
# datcnv_date = Oct 08 2020 08:59:09, 7.26.7.129 [datcnv_vars = 6]
# datcnv_in = C:\seabirdscientific\tests\resources\test-data\SBE19plus_01906398_2019_07_15_0033.hex C:\seabirdscientific\tests\resources\test-data\SBE19plusV2_6398.xmlcon
# datcnv_skipover = 0
# datcnv_ox_hysteresis_correction = yes
# file_type = ascii
*END*
     -0.012    25.3427   0.089667     0.4373     2.5575      7.650  0.000e+00
     -0.012    25.3408   0.113648     0.5592     2.5586      7.653  0.000e+00
     -0.012    25.3387   0.118966     0.5865     2.5606      7.651  0.000e+00
     -0.011    25.3363   0.103895     0.5095     2.5627      7.652  0.000e+00
     -0.011    25.3341   0.094561     0.4621     2.5638      7.650  0.000e+00
     -0.012    25.3326   0.084609     0.4119     2.5637      7.646  0.000e+00
     -0.012    25.3316   0.080956     0.3936     2.5635      7.645  0.000e+00
     -0.011    25.3302   0.071491     0.3463     2.5629      7.653  0.000e+00
      0.107    25.3377   0.890294     4.9297     2.5621      7.896  0.000e+00
      0.351    25.5433   1.157493     6.5098     2.5618      8.113  0.000e+00
      0.473    25.9030   1.166377     6.5130     2.5610      8.234  0.000e+00
      0.558    26.1913   1.166108     6.4713     2.5618      8.307  0.000e+00
      0.624    26.3816   1.165435     6.4411     2.5636      8.347  0.000e+00
      0.645    26.5037   1.164109     6.4165     2.5666      8.374  0.000e+00
      0.655    26.5790   1.164053     6.4059     2.5726      8.391  0.000e+00
      0.697    26.6218   1.164535     6.4029     2.5803      8.403  0.000e+00
      0.741    26.6460   1.164294     6.3982     2.5873      8.412  0.000e+00
      0.758    26.6600   1.162427     6.3852     2.5954      8.423  0.000e+00
      0.761    26.6690   1.162163     6.3824     2.6029      8.430  0.000e+00
      0.749    26.6763   1.161603     6.3781     2.6102      8.437  0.000e+00
      0.730    26.6799   1.161751     6.3785     2.6166      8.443  0.000e+00
      0.729    26.6817   1.162969     6.3855     2.6235      8.452  0.000e+00
      0.736    26.6834   1.163650     6.3893     2.6265      8.457  0.000e+00
      0.748    26.6830   1.164155     6.3923     2.6417      8.463  0.000e+00
      0.758    26.6831   1.164183     6.3925     2.6888      8.470  0.000e+00
      0.757    26.6853   1.163835     6.3901     2.7729      8.473  0.000e+00
      0.742    26.6896   1.163233     6.3860     2.8505      8.480  0.000e+00
      0.723    26.6955   1.162988     6.3837     2.9072      8.485  0.000e+00
      0.717    26.7024   1.163942     6.3884     2.9343      8.491  0.000e+00
      0.726    26.7071   1.164317     6.3900     2.9423      8.494  0.000e+00
      0.745    26.7057   1.164271     6.3899     2.9431      8.500  0.000e+00
      0.771    26.7018   1.163673     6.3869     2.9577      8.505  0.000e+00
      0.798    26.6994   1.162918     6.3828     2.9903      8.510  0.000e+00
      0.821    26.7020   1.162312     6.3788     3.0216      8.513  0.000e+00
      0.829    26.7064   1.161978     6.3763     3.0327      8.515  0.000e+00
      0.819    26.7106   1.162853     6.3809     3.0296      8.520  0.000e+00
      0.794    26.7133   1.162700     6.3796     3.0188      8.520  0.000e+00
      0.761    26.7126   1.162937     6.3811     3.0071      8.525  0.000e+00
      0.740    26.7126   1.163631     6.3852     2.9908      8.528  0.000e+00
      0.730    26.7142   1.163942     6.3868     2.9725      8.530  0.000e+00
      0.739    26.7134   1.164285     6.3890     2.9535      8.533  0.000e+00
      0.766    26.7114   1.163868     6.3868     2.9340      8.540  0.000e+00
      0.796    26.7091   1.162261     6.3776     2.9174      8.543  0.000e+00
      0.820    26.7093   1.160904     6.3695     2.9084      8.543  0.000e+00
      0.824    26.7109   1.161034     6.3701     2.8995      8.543  0.000e+00
      0.817    26.7121   1.162061     6.3760     2.8911      8.547  0.000e+00
      0.812    26.7119   1.163441     6.3842     2.8895      8.551  0.000e+00
      0.813    26.7140   1.164479     6.3900     2.8941      8.551  0.000e+00
      0.822    26.7148   1.164725     6.3914     2.9027      8.557  0.000e+00
      0.835    26.7135   1.164674     6.3913     2.9106      8.556  0.000e+00
      0.838    26.7129   1.164271     6.3890     2.9095      8.559  0.000e+00
      0.827    26.7129   1.163854     6.3865     2.9036      8.561  0.000e+00
      0.809    26.7135   1.163353     6.3834     2.8962      8.561  0.000e+00
      0.791    26.7166   1.163529     6.3841     2.8909      8.565  0.000e+00
      0.782    26.7207   1.164155     6.3872     2.8949      8.563  0.000e+00
      0.780    26.7248   1.164405     6.3881     2.9062      8.564  0.000e+00
      0.786    26.7277   1.164349     6.3874     2.9239      8.565  0.000e+00
      0.796    26.7273   1.163826     6.3844     2.9367      8.565  0.000e+00
      0.800    26.7237   1.161385     6.3704     2.9460      8.571  0.000e+00
      0.795    26.7239   1.160686     6.3663     2.9514      8.570  0.000e+00
      0.791    26.7255   1.161487     6.3708     2.9510      8.575  0.000e+00
      0.799    26.7225   1.163423     6.3826     2.9484      8.576  0.000e+00
      0.816    26.7199   1.164373     6.3886     2.9513      8.575  0.000e+00
      0.830    26.7176   1.163585     6.3843     2.9622      8.579  0.000e+00
      0.834    26.7138   1.161256     6.3710     2.9671      8.577  0.000e+00
      0.830    26.7143   1.160335     6.3655     2.9604      8.579  0.000e+00
      0.818    26.7031   1.161034     6.3711     2.9501      8.579  0.000e+00
      0.812    26.6823   1.162941     6.3852     2.9377      8.576  0.000e+00
      0.819    26.6700   1.164109     6.3938     2.9286      8.579  0.000e+00
      0.829    26.6719   1.164502     6.3959     2.9313      8.583  0.000e+00
      0.819    26.6794   1.162302     6.3818     2.9397      8.580  0.000e+00
      0.787    26.6884   1.160927     6.3725     2.9614      8.583  0.000e+00
      0.740    26.6936   1.160529     6.3694     2.9848      8.581  0.000e+00
      0.702    26.6836   1.162024     6.3796     2.9976      8.587  0.000e+00
      0.698    26.6760   1.163914     6.3919     3.0047      8.583  0.000e+00
      0.745    26.6755   1.165128     6.3991     3.0199      8.585  0.000e+00
      0.829    26.6824   1.164317     6.3934     3.0373      8.585  0.000e+00
      0.903    26.6927   1.161636     6.3761     3.0527      8.587  0.000e+00
      0.950    26.6994   1.161511     6.3744     3.0700      8.591  0.000e+00
      0.942    26.6624   1.161923     6.3819     3.0822      8.593  0.000e+00
      0.890    26.6122   1.161742     6.3876     3.1022      8.591  0.000e+00
      0.814    26.5808   1.161557     6.3908     3.1192      8.593  0.000e+00
      0.742    26.5621   1.162071     6.3964     3.1254      8.592  0.000e+00
      0.708    26.5503   1.162118     6.3983     3.1198      8.592  0.000e+00
      0.714    26.5505   1.162724     6.4018     3.1138      8.595  0.000e+00
      0.759    26.5690   1.163150     6.4019     3.1044      8.595  0.000e+00
      0.795    26.5954   1.162747     6.3959     3.1022      8.599  0.000e+00
      0.828    26.6182   1.161372     6.3846     3.1073      8.596  0.000e+00
      0.842    26.6359   1.161076     6.3805     3.1124      8.595  0.000e+00
      0.842    26.6290   1.160918     6.3805     3.1094      8.598  0.000e+00
      0.834    26.6003   1.161020     6.3850     3.1004      8.600  0.000e+00
      0.837    26.5773   1.161701     6.3921     3.0886      8.599  0.000e+00
      0.849    26.5671   1.162002     6.3953     3.0817      8.596  0.000e+00
      0.860    26.5694   1.161340     6.3911     3.0756      8.598  0.000e+00
      0.859    26.5752   1.160766     6.3869     3.0601      8.599  0.000e+00
      0.841    26.5792   1.160631     6.3855     3.0449      8.600  0.000e+00
      0.812    26.5675   1.160530     6.3865     3.0344      8.601  0.000e+00
      0.781    26.5430   1.160516     6.3898     3.0256      8.599  0.000e+00
      0.759    26.5256   1.160928     6.3946     3.0137      8.600  0.000e+00
      0.749    26.5187   1.161020     6.3961     2.9969      8.600  0.000e+00
      0.764    26.5218   1.161192     6.3966     2.9819      8.604  0.000e+00
